 [antenna_pattern.dat]

  É” = 90.000 Åãplane
   É∆(deg)       EÉ”       EÉ∆       ER        EL 
   -90.000   -7.6884  -30.0000  -10.3368   -9.5608
   -89.000   -7.6986  -30.0000  -10.0201   -9.8801
   -88.000   -7.7029  -30.0000   -9.7134  -10.1928
   -87.000   -7.7017  -29.2494   -9.4161  -10.4979
   -86.000   -7.6954  -25.8697   -9.1279  -10.7946
   -85.000   -7.6846  -23.4662   -8.8484  -11.0824
   -84.000   -7.6695  -21.6110   -8.5773  -11.3607
   -83.000   -7.6507  -20.1066   -8.3141  -11.6292
   -82.000   -7.6286  -18.8460   -8.0588  -11.8876
   -81.000   -7.6034  -17.7645   -7.8108  -12.1361
   -80.000   -7.5757  -16.8206   -7.5701  -12.3749
   -79.000   -7.5455  -15.9854   -7.3363  -12.6044
   -78.000   -7.5134  -15.2386   -7.1092  -12.8254
   -77.000   -7.4795  -14.5650   -6.8887  -13.0389
   -76.000   -7.4440  -13.9531   -6.6744  -13.2458
   -75.000   -7.4072  -13.3939   -6.4661  -13.4476
   -74.000   -7.3692  -12.8802   -6.2638  -13.6458
   -73.000   -7.3303  -12.4064   -6.0673  -13.8420
   -72.000   -7.2905  -11.9677   -5.8763  -14.0379
   -71.000   -7.2500  -11.5603   -5.6907  -14.2355
   -70.000   -7.2088  -11.1809   -5.5104  -14.4368
   -69.000   -7.1671  -10.8267   -5.3352  -14.6439
   -68.000   -7.1249  -10.4953   -5.1650  -14.8590
   -67.000   -7.0821  -10.1847   -4.9997  -15.0844
   -66.000   -7.0389   -9.8931   -4.8391  -15.3226
   -65.000   -6.9952   -9.6191   -4.6832  -15.5762
   -64.000   -6.9509   -9.3611   -4.5318  -15.8480
   -63.000   -6.9062   -9.1181   -4.3848  -16.1411
   -62.000   -6.8608   -8.8889   -4.2421  -16.4589
   -61.000   -6.8147   -8.6727   -4.1036  -16.8051
   -60.000   -6.7679   -8.4685   -3.9692  -17.1841
   -59.000   -6.7202   -8.2756   -3.8389  -17.6008
   -58.000   -6.6716   -8.0932   -3.7126  -18.0611
   -57.000   -6.6218   -7.9208   -3.5901  -18.5720
   -56.000   -6.5709   -7.7578   -3.4714  -19.1419
   -55.000   -6.5185   -7.6036   -3.3565  -19.7814
   -54.000   -6.4646   -7.4578   -3.2451  -20.5036
   -53.000   -6.4090   -7.3198   -3.1374  -21.3256
   -52.000   -6.3516   -7.1894   -3.0332  -22.2691
   -51.000   -6.2921   -7.0660   -2.9324  -23.3629
   -50.000   -6.2304   -6.9494   -2.8350  -24.6435
   -49.000   -6.1663   -6.8393   -2.7409  -26.1539
   -48.000   -6.0997   -6.7352   -2.6501  -27.9251
   -47.000   -6.0304   -6.6369   -2.5625  -29.8892
   -46.000   -5.9582   -6.5442   -2.4780  -30.0000
   -45.000   -5.8829   -6.4568   -2.3967  -30.0000
   -44.000   -5.8045   -6.3745   -2.3184  -30.0000
   -43.000   -5.7228   -6.2970   -2.2431  -28.0838
   -42.000   -5.6378   -6.2241   -2.1708  -25.9010
   -41.000   -5.5492   -6.1556   -2.1014  -23.9724
   -40.000   -5.4571   -6.0914   -2.0348  -22.2920
   -39.000   -5.3614   -6.0313   -1.9711  -20.8179
   -38.000   -5.2621   -5.9750   -1.9101  -19.5104
   -37.000   -5.1592   -5.9225   -1.8519  -18.3375
   -36.000   -5.0527   -5.8736   -1.7965  -17.2750
   -35.000   -4.9427   -5.8281   -1.7437  -16.3042
   -34.000   -4.8294   -5.7860   -1.6935  -15.4107
   -33.000   -4.7127   -5.7471   -1.6460  -14.5831
   -32.000   -4.5929   -5.7112   -1.6010  -13.8127
   -31.000   -4.4702   -5.6784   -1.5586  -13.0921
   -30.000   -4.3446   -5.6484   -1.5188  -12.4157
   -29.000   -4.2165   -5.6212   -1.4815  -11.7785
   -28.000   -4.0861   -5.5968   -1.4466  -11.1765
   -27.000   -3.9536   -5.5749   -1.4143  -10.6064
   -26.000   -3.8193   -5.5556   -1.3845  -10.0654
   -25.000   -3.6835   -5.5388   -1.3571   -9.5510
   -24.000   -3.5465   -5.5244   -1.3322   -9.0610
   -23.000   -3.4085   -5.5123   -1.3098   -8.5938
   -22.000   -3.2700   -5.5025   -1.2898   -8.1476
   -21.000   -3.1311   -5.4949   -1.2723   -7.7212
   -20.000   -2.9923   -5.4894   -1.2573   -7.3132
   -19.000   -2.8538   -5.4861   -1.2447   -6.9226
   -18.000   -2.7159   -5.4848   -1.2347   -6.5484
   -17.000   -2.5790   -5.4855   -1.2273   -6.1897
   -16.000   -2.4433   -5.4882   -1.2224   -5.8459
   -15.000   -2.3091   -5.4928   -1.2201   -5.5161
   -14.000   -2.1768   -5.4992   -1.2204   -5.1998
   -13.000   -2.0465   -5.5074   -1.2234   -4.8963
   -12.000   -1.9185   -5.5173   -1.2291   -4.6052
   -11.000   -1.7931   -5.5289   -1.2375   -4.3259
   -10.000   -1.6706   -5.5421   -1.2488   -4.0581
    -9.000   -1.5511   -5.5568   -1.2630   -3.8013
    -8.000   -1.4348   -5.5730   -1.2800   -3.5552
    -7.000   -1.3221   -5.5907   -1.3001   -3.3195
    -6.000   -1.2130   -5.6096   -1.3232   -3.0937
    -5.000   -1.1078   -5.6298   -1.3495   -2.8776
    -4.000   -1.0065   -5.6511   -1.3790   -2.6710
    -3.000   -0.9095   -5.6735   -1.4117   -2.4736
    -2.000   -0.8168   -5.6969   -1.4478   -2.2852
    -1.000   -0.7286   -5.7212   -1.4874   -2.1055
     0.000   -0.6449   -5.7462   -1.5305   -1.9343
     1.000   -0.5660   -5.7719   -1.5772   -1.7715
     2.000   -0.4919   -5.7982   -1.6275   -1.6168
     3.000   -0.4226   -5.8250   -1.6817   -1.4702
     4.000   -0.3584   -5.8521   -1.7397   -1.3313
     5.000   -0.2993   -5.8795   -1.8017   -1.2001
     6.000   -0.2454   -5.9070   -1.8677   -1.0764
     7.000   -0.1966   -5.9346   -1.9378   -0.9601
     8.000   -0.1532   -5.9621   -2.0121   -0.8511
     9.000   -0.1151   -5.9895   -2.0907   -0.7491
    10.000   -0.0823   -6.0166   -2.1736   -0.6542
    11.000   -0.0550   -6.0434   -2.2610   -0.5661
    12.000   -0.0330   -6.0699   -2.3528   -0.4848
    13.000   -0.0166   -6.0959   -2.4492   -0.4102
    14.000   -0.0056   -6.1214   -2.5502   -0.3421
    15.000   -0.0000   -6.1463   -2.6558   -0.2805
    16.000    0.0000   -6.1707   -2.7662   -0.2253
    17.000   -0.0054   -6.1946   -2.8812   -0.1763
    18.000   -0.0163   -6.2179   -3.0011   -0.1335
    19.000   -0.0327   -6.2406   -3.1256   -0.0968
    20.000   -0.0544   -6.2629   -3.2550   -0.0661
    21.000   -0.0816   -6.2847   -3.3892   -0.0414
    22.000   -0.1141   -6.3061   -3.5281   -0.0224
    23.000   -0.1520   -6.3273   -3.6718   -0.0093
    24.000   -0.1951   -6.3483   -3.8202   -0.0018
    25.000   -0.2435   -6.3693   -3.9732    0.0000
    26.000   -0.2971   -6.3904   -4.1308   -0.0037
    27.000   -0.3558   -6.4118   -4.2930   -0.0129
    28.000   -0.4195   -6.4336   -4.4595   -0.0275
    29.000   -0.4882   -6.4560   -4.6303   -0.0474
    30.000   -0.5618   -6.4793   -4.8053   -0.0727
    31.000   -0.6403   -6.5036   -4.9842   -0.1031
    32.000   -0.7234   -6.5292   -5.1670   -0.1387
    33.000   -0.8112   -6.5563   -5.3535   -0.1794
    34.000   -0.9036   -6.5851   -5.5434   -0.2251
    35.000   -1.0003   -6.6159   -5.7364   -0.2759
    36.000   -1.1014   -6.6489   -5.9324   -0.3315
    37.000   -1.2067   -6.6845   -6.1310   -0.3920
    38.000   -1.3160   -6.7229   -6.3320   -0.4574
    39.000   -1.4293   -6.7643   -6.5351   -0.5275
    40.000   -1.5464   -6.8091   -6.7398   -0.6024
    41.000   -1.6671   -6.8575   -6.9459   -0.6820
    42.000   -1.7914   -6.9099   -7.1529   -0.7662
    43.000   -1.9190   -6.9664   -7.3605   -0.8551
    44.000   -2.0498   -7.0275   -7.5683   -0.9485
    45.000   -2.1837   -7.0935   -7.7759   -1.0466
    46.000   -2.3205   -7.1646   -7.9828   -1.1491
    47.000   -2.4600   -7.2412   -8.1886   -1.2562
    48.000   -2.6020   -7.3236   -8.3929   -1.3677
    49.000   -2.7463   -7.4121   -8.5954   -1.4838
    50.000   -2.8929   -7.5072   -8.7954   -1.6043
    51.000   -3.0414   -7.6091   -8.9928   -1.7293
    52.000   -3.1917   -7.7183   -9.1870   -1.8588
    53.000   -3.3437   -7.8352   -9.3778   -1.9927
    54.000   -3.4971   -7.9602   -9.5647   -2.1312
    55.000   -3.6517   -8.0937   -9.7475   -2.2742
    56.000   -3.8075   -8.2362   -9.9258   -2.4218
    57.000   -3.9641   -8.3883  -10.0993   -2.5740
    58.000   -4.1214   -8.5505  -10.2679   -2.7309
    59.000   -4.2793   -8.7234  -10.4311   -2.8925
    60.000   -4.4375   -8.9076  -10.5889   -3.0589
    61.000   -4.5960   -9.1039  -10.7408   -3.2301
    62.000   -4.7545   -9.3130  -10.8868   -3.4064
    63.000   -4.9129   -9.5358  -11.0266   -3.5878
    64.000   -5.0712   -9.7733  -11.1598   -3.7744
    65.000   -5.2291  -10.0265  -11.2862   -3.9664
    66.000   -5.3866  -10.2966  -11.4055   -4.1640
    67.000   -5.5435  -10.5850  -11.5173   -4.3673
    68.000   -5.6998  -10.8932  -11.6212   -4.5766
    69.000   -5.8554  -11.2230  -11.7167   -4.7920
    70.000   -6.0103  -11.5765  -11.8033   -5.0139
    71.000   -6.1643  -11.9559  -11.8804   -5.2426
    72.000   -6.3175  -12.3642  -11.9473   -5.4783
    73.000   -6.4699  -12.8044  -12.0035   -5.7215
    74.000   -6.6213  -13.2807  -12.0481   -5.9725
    75.000   -6.7720  -13.7976  -12.0804   -6.2319
    76.000   -6.9217  -14.3609  -12.0996   -6.5000
    77.000   -7.0707  -14.9778  -12.1051   -6.7774
    78.000   -7.2188  -15.6572  -12.0960   -7.0649
    79.000   -7.3662  -16.4109  -12.0718   -7.3630
    80.000   -7.5129  -17.2540  -12.0320   -7.6726
    81.000   -7.6590  -18.2071  -11.9761   -7.9944
    82.000   -7.8044  -19.2992  -11.9039   -8.3296
    83.000   -7.9493  -20.5725  -11.8152   -8.6792
    84.000   -8.0936  -22.0919  -11.7101   -9.0445
    85.000   -8.2373  -23.9656  -11.5889   -9.4269
    86.000   -8.3806  -26.3927  -11.4520   -9.8280
    87.000   -8.5234  -29.8012  -11.3000  -10.2496
    88.000   -8.6656  -30.0000  -11.1337  -10.6941
    89.000   -8.8073  -30.0000  -10.9539  -11.1638
    90.000   -8.9483  -30.0000  -10.7616  -11.6617




