 [antenna_pattern.dat]

  É” = 315.000 Åãplane
   É∆(deg)       EÉ”       EÉ∆       ER        EL 
   -90.000  -30.0000  -30.0000  -30.0000  -30.0000
   -89.000  -30.0000  -30.0000  -30.0000  -30.0000
   -88.000  -30.0000  -30.0000  -30.0000  -30.0000
   -87.000  -30.0000  -30.0000  -30.0000  -30.0000
   -86.000  -30.0000  -30.0000  -30.0000  -30.0000
   -85.000  -30.0000  -30.0000  -30.0000  -30.0000
   -84.000  -30.0000  -30.0000  -30.0000  -30.0000
   -83.000  -30.0000  -30.0000  -30.0000  -30.0000
   -82.000  -30.0000  -30.0000  -30.0000  -30.0000
   -81.000  -30.0000  -30.0000  -30.0000  -30.0000
   -80.000  -30.0000  -30.0000  -30.0000  -30.0000
   -79.000  -30.0000  -30.0000  -30.0000  -30.0000
   -78.000  -30.0000  -30.0000  -30.0000  -30.0000
   -77.000  -30.0000  -30.0000  -30.0000  -30.0000
   -76.000  -30.0000  -30.0000  -30.0000  -30.0000
   -75.000  -29.8841  -30.0000  -30.0000  -30.0000
   -74.000  -29.3129  -29.8609  -29.8919  -30.0000
   -73.000  -28.7788  -29.1473  -29.2745  -30.0000
   -72.000  -28.2785  -28.4630  -28.6879  -30.0000
   -71.000  -27.8095  -27.8078  -28.1306  -30.0000
   -70.000  -27.3697  -27.1814  -27.6015  -30.0000
   -69.000  -26.9575  -26.5831  -27.0996  -30.0000
   -68.000  -26.5718  -26.0125  -26.6240  -30.0000
   -67.000  -26.2116  -25.4688  -26.1741  -30.0000
   -66.000  -25.8763  -24.9514  -25.7493  -30.0000
   -65.000  -25.5655  -24.4596  -25.3491  -30.0000
   -64.000  -25.2789  -23.9927  -24.9731  -30.0000
   -63.000  -25.0167  -23.5501  -24.6212  -30.0000
   -62.000  -24.7790  -23.1312  -24.2930  -30.0000
   -61.000  -24.5661  -22.7354  -23.9885  -30.0000
   -60.000  -24.3788  -22.3621  -23.7078  -30.0000
   -59.000  -24.2178  -22.0107  -23.4507  -30.0000
   -58.000  -24.0841  -21.6809  -23.2175  -30.0000
   -57.000  -23.9788  -21.3719  -23.0082  -30.0000
   -56.000  -23.9036  -21.0833  -22.8230  -29.7533
   -55.000  -23.8601  -20.8146  -22.6623  -29.4061
   -54.000  -23.8505  -20.5652  -22.5261  -29.0719
   -53.000  -23.8773  -20.3344  -22.4148  -28.7506
   -52.000  -23.9436  -20.1215  -22.3286  -28.4419
   -51.000  -24.0530  -19.9259  -22.2674  -28.1455
   -50.000  -24.2097  -19.7465  -22.2312  -27.8613
   -49.000  -24.4193  -19.5823  -22.2198  -27.5891
   -48.000  -24.6880  -19.4321  -22.2324  -27.3286
   -47.000  -25.0238  -19.2943  -22.2677  -27.0797
   -46.000  -25.4368  -19.1671  -22.3238  -26.8422
   -45.000  -25.9393  -19.0484  -22.3974  -26.6160
   -44.000  -26.5471  -18.9358  -22.4840  -26.4007
   -43.000  -27.2800  -18.8262  -22.5770  -26.1964
   -42.000  -28.1624  -18.7164  -22.6674  -26.0027
   -41.000  -29.2216  -18.6024  -22.7434  -25.8197
   -40.000  -30.0000  -18.4800  -22.7900  -25.6471
   -39.000  -30.0000  -18.3448  -22.7897  -25.4849
   -38.000  -30.0000  -18.1919  -22.7239  -25.3328
   -37.000  -30.0000  -18.0168  -22.5747  -25.1909
   -36.000  -30.0000  -17.8151  -22.3284  -25.0590
   -35.000  -30.0000  -17.5830  -21.9781  -24.9371
   -34.000  -30.0000  -17.3178  -21.5254  -24.8249
   -33.000  -28.0280  -17.0179  -20.9801  -24.7226
   -32.000  -26.1235  -16.6828  -20.3577  -24.6300
   -31.000  -24.4163  -16.3136  -19.6765  -24.5470
   -30.000  -22.8835  -15.9125  -18.9550  -24.4737
   -29.000  -21.4976  -15.4828  -18.2093  -24.4099
   -28.000  -20.2345  -15.0283  -17.4532  -24.3557
   -27.000  -19.0747  -14.5534  -16.6972  -24.3110
   -26.000  -18.0027  -14.0627  -15.9489  -24.2758
   -25.000  -17.0061  -13.5606  -15.2140  -24.2502
   -24.000  -16.0751  -13.0512  -14.4964  -24.2340
   -23.000  -15.2017  -12.5382  -13.7983  -24.2274
   -22.000  -14.3794  -12.0249  -13.1214  -24.2303
   -21.000  -13.6030  -11.5142  -12.4664  -24.2428
   -20.000  -12.8679  -11.0085  -11.8335  -24.2650
   -19.000  -12.1704  -10.5097  -11.2229  -24.2968
   -18.000  -11.5074  -10.0195  -10.6342  -24.3383
   -17.000  -10.8762   -9.5392  -10.0669  -24.3896
   -16.000  -10.2744   -9.0698   -9.5207  -24.4508
   -15.000   -9.7001   -8.6120   -8.9948  -24.5220
   -14.000   -9.1515   -8.1664   -8.4889  -24.6032
   -13.000   -8.6270   -7.7336   -8.0022  -24.6946
   -12.000   -8.1253   -7.3138   -7.5343  -24.7963
   -11.000   -7.6452   -6.9072   -7.0845  -24.9084
   -10.000   -7.1856   -6.5139   -6.6523  -25.0310
    -9.000   -6.7456   -6.1341   -6.2372  -25.1644
    -8.000   -6.3243   -5.7676   -5.8387  -25.3087
    -7.000   -5.9210   -5.4145   -5.4563  -25.4640
    -6.000   -5.5349   -5.0747   -5.0897  -25.6306
    -5.000   -5.1653   -4.7481   -4.7384  -25.8085
    -4.000   -4.8119   -4.4346   -4.4019  -25.9979
    -3.000   -4.4739   -4.1341   -4.0800  -26.1991
    -2.000   -4.1509   -3.8464   -3.7724  -26.4121
    -1.000   -3.8424   -3.5714   -3.4786  -26.6370
     0.000   -3.5482   -3.3090   -3.1984  -26.8739
     1.000   -3.2676   -3.0591   -2.9314  -27.1227
     2.000   -3.0005   -2.8214   -2.6775  -27.3832
     3.000   -2.7465   -2.5959   -2.4364  -27.6553
     4.000   -2.5053   -2.3824   -2.2078  -27.9384
     5.000   -2.2765   -2.1808   -1.9916  -28.2318
     6.000   -2.0600   -1.9910   -1.7874  -28.5344
     7.000   -1.8555   -1.8128   -1.5951  -28.8446
     8.000   -1.6627   -1.6462   -1.4146  -29.1603
     9.000   -1.4815   -1.4909   -1.2456  -29.4788
    10.000   -1.3116   -1.3470   -1.0879  -29.7963
    11.000   -1.1528   -1.2143   -0.9415  -30.0000
    12.000   -1.0049   -1.0926   -0.8062  -30.0000
    13.000   -0.8678   -0.9821   -0.6817  -30.0000
    14.000   -0.7413   -0.8824   -0.5681  -30.0000
    15.000   -0.6253   -0.7936   -0.4652  -30.0000
    16.000   -0.5196   -0.7156   -0.3728  -30.0000
    17.000   -0.4240   -0.6482   -0.2908  -30.0000
    18.000   -0.3384   -0.5916   -0.2192  -30.0000
    19.000   -0.2627   -0.5455   -0.1578  -30.0000
    20.000   -0.1968   -0.5100   -0.1066  -30.0000
    21.000   -0.1406   -0.4849   -0.0655  -30.0000
    22.000   -0.0939   -0.4704   -0.0343  -30.0000
    23.000   -0.0566   -0.4662   -0.0131  -30.0000
    24.000   -0.0287   -0.4725   -0.0016  -30.0000
    25.000   -0.0100   -0.4891    0.0000  -30.0000
    26.000   -0.0005   -0.5161   -0.0081  -29.7415
    27.000    0.0000   -0.5534   -0.0258  -29.3397
    28.000   -0.0085   -0.6011   -0.0532  -28.9255
    29.000   -0.0259   -0.6591   -0.0901  -28.5050
    30.000   -0.0522   -0.7275   -0.1365  -28.0832
    31.000   -0.0872   -0.8063   -0.1925  -27.6641
    32.000   -0.1309   -0.8955   -0.2579  -27.2508
    33.000   -0.1832   -0.9951   -0.3327  -26.8456
    34.000   -0.2442   -1.1052   -0.4170  -26.4502
    35.000   -0.3136   -1.2259   -0.5107  -26.0659
    36.000   -0.3916   -1.3571   -0.6139  -25.6935
    37.000   -0.4780   -1.4990   -0.7264  -25.3337
    38.000   -0.5728   -1.6516   -0.8483  -24.9868
    39.000   -0.6761   -1.8150   -0.9797  -24.6532
    40.000   -0.7876   -1.9894   -1.1206  -24.3330
    41.000   -0.9076   -2.1748   -1.2709  -24.0262
    42.000   -1.0359   -2.3713   -1.4308  -23.7328
    43.000   -1.1726   -2.5790   -1.6002  -23.4529
    44.000   -1.3176   -2.7983   -1.7793  -23.1864
    45.000   -1.4710   -3.0290   -1.9680  -22.9333
    46.000   -1.6328   -3.2715   -2.1665  -22.6935
    47.000   -1.8031   -3.5260   -2.3748  -22.4671
    48.000   -1.9819   -3.7926   -2.5931  -22.2540
    49.000   -2.1693   -4.0715   -2.8214  -22.0542
    50.000   -2.3654   -4.3630   -3.0600  -21.8679
    51.000   -2.5703   -4.6674   -3.3088  -21.6951
    52.000   -2.7840   -4.9848   -3.5681  -21.5359
    53.000   -3.0068   -5.3157   -3.8381  -21.3905
    54.000   -3.2388   -5.6602   -4.1189  -21.2591
    55.000   -3.4803   -6.0189   -4.4107  -21.1420
    56.000   -3.7313   -6.3919   -4.7138  -21.0393
    57.000   -3.9923   -6.7797   -5.0286  -20.9515
    58.000   -4.2634   -7.1826   -5.3551  -20.8791
    59.000   -4.5451   -7.6012   -5.6939  -20.8224
    60.000   -4.8377   -8.0358   -6.0452  -20.7820
    61.000   -5.1418   -8.4869   -6.4094  -20.7587
    62.000   -5.4577   -8.9549   -6.7871  -20.7531
    63.000   -5.7861   -9.4404   -7.1786  -20.7660
    64.000   -6.1276   -9.9438   -7.5846  -20.7986
    65.000   -6.4831  -10.4657   -8.0057  -20.8518
    66.000   -6.8535  -11.0064   -8.4426  -20.9271
    67.000   -7.2397  -11.5665   -8.8961  -21.0260
    68.000   -7.6429  -12.1463   -9.3670  -21.1501
    69.000   -8.0646  -12.7461   -9.8564  -21.3015
    70.000   -8.5063  -13.3661  -10.3654  -21.4827
    71.000   -8.9699  -14.0063  -10.8953  -21.6965
    72.000   -9.4576  -14.6666  -11.4476  -21.9462
    73.000   -9.9721  -15.3463  -12.0240  -22.2358
    74.000  -10.5164  -16.0444  -12.6264  -22.5702
    75.000  -11.0943  -16.7595  -13.2572  -22.9553
    76.000  -11.7105  -17.4893  -13.9190  -23.3985
    77.000  -12.3704  -18.2305  -14.6149  -23.9089
    78.000  -13.0812  -18.9788  -15.3488  -24.4982
    79.000  -13.8516  -19.7284  -16.1252  -25.1814
    80.000  -14.6932  -20.4720  -16.9496  -25.9782
    81.000  -15.6211  -21.2004  -17.8286  -26.9149
    82.000  -16.6558  -21.9028  -18.7707  -28.0270
    83.000  -17.8260  -22.5666  -19.7865  -29.3613
    84.000  -19.1742  -23.1784  -20.8894  -30.0000
    85.000  -20.7657  -23.7241  -22.0971  -30.0000
    86.000  -22.7104  -24.1906  -23.4330  -30.0000
    87.000  -25.2143  -24.5659  -24.9285  -30.0000
    88.000  -28.7398  -24.8408  -26.6256  -30.0000
    89.000  -30.0000  -25.0083  -28.5779  -30.0000
    90.000  -30.0000  -25.0646  -30.0000  -30.0000




